Wavelength,vp39
451.996002,4.92760316
454.221985,4.92760316
456.447998,4.92760316
458.674011,4.92760316
460.899994,4.92760316
463.126007,4.92760316
465.35199,4.92760316
467.578003,4.92760316
469.803986,4.92760316
472.029999,4.92760316
474.256012,4.92760316
476.481995,4.92760316
478.708008,4.92760316
480.93399,4.92760316
483.160004,4.92760316
485.385986,4.92760316
487.612,4.92760316
489.838013,4.92760316
492.063995,4.92760316
494.290009,4.92760316
496.515991,4.92760316
498.742004,4.92760316
500.967987,4.92760316
503.194,4.92760316
505.420013,4.92760316
507.645996,4.92760316
509.872009,4.92760316
512.098022,4.92760316
514.323975,4.92760316
516.549988,4.92760316
518.776001,4.92760316
521.002014,4.92760316
523.228027,4.92760316
525.453979,4.92760316
527.679993,4.92760316
529.906006,4.92760316
532.132019,4.92760316
534.357971,4.92760316
536.583984,4.92760316
538.809998,4.92760316
541.036011,4.92760316
543.260986,4.92760316
545.487,4.92760316
547.713013,4.92760316
549.939026,4.92760316
552.164978,4.92760316
554.390991,4.92760316
556.617004,4.92760316
558.843018,4.92760316
561.06897,4.92760316
563.294983,4.92760316
565.520996,4.92760316
567.747009,4.92760316
569.973022,4.92760316
572.198975,4.92760316
574.424988,4.92760316
576.651001,4.92760316
578.877014,4.92760316
581.103027,4.92760316
583.328979,4.92760316
585.554993,4.92760316
587.781006,4.92760316
590.007019,4.92760316
592.232971,4.92760316
594.458984,4.92760316
596.684998,4.92760316
598.911011,4.92760316
601.137024,4.92760316
603.362976,4.92760316
605.588989,4.92760316
607.815002,4.92760316
610.041016,4.92760316
612.267029,4.92760316
614.492981,4.92760316
616.718994,4.92760316
618.945007,4.92760316
621.171021,4.92760316
623.396973,4.92760316
625.622986,4.92760316
627.848999,4.92760316
630.075012,4.92760316
632.301025,4.92760316
634.526978,4.92760316
636.752991,4.92760316
638.979004,4.92760316
641.205017,4.92760316
643.43103,4.92760316
645.656982,4.92760316
647.882996,4.92760316
650.109009,4.92760316
652.335022,4.92760316
654.560974,4.92760316
656.786987,4.92760316
659.013,4.92760316
661.239014,4.92760316
663.465027,4.92760316
665.690002,4.92760316
667.916016,4.92760316
670.142029,4.92760316
672.367981,4.92760316
674.593994,4.92760316
676.820007,4.92760316
679.046021,4.92760316
681.271973,4.92760316
683.497986,4.92760316
685.723999,4.92760316
687.950012,4.92760316
690.176025,4.92760316
692.401978,4.92760316
694.627991,4.92760316
696.854004,4.92760316
699.080017,4.92760316
701.30603,4.92760316
703.531982,4.92760316
705.757996,4.92760316
707.984009,4.92760316
710.210022,4.92760316
712.435974,4.92760316
714.661987,4.92760316
716.888,4.92760316
719.114014,4.92760316
721.340027,4.92760316
723.565979,4.92760316
725.791992,4.92760316
728.018005,4.92760316
730.244019,4.92760316
732.469971,4.92760316
734.695984,4.92760316
736.921997,4.92760316
739.14801,4.92760316
741.374023,4.92760316
743.599976,4.92760316
745.825989,4.92760316
748.052002,4.92760316
750.278015,4.92760316
752.504028,4.92760316
754.72998,4.92760316
756.955994,4.92760316
759.182007,4.92760316
761.40802,4.92760316
763.633972,4.92760316
765.859985,4.92760316
768.085999,4.92760316
770.312012,4.92760316
772.538025,4.92760316
774.763977,4.92760316
776.989014,4.92760316
779.216003,4.92760316
781.440979,4.92760316
783.666992,4.92760316
785.893005,4.92760316
788.119019,4.92760316
790.344971,4.92760316
792.570984,4.92760316
794.796997,4.92760316
797.02301,4.92760316
799.249023,4.92760316
801.474976,4.92760316
803.700989,4.92760316
805.927002,4.92760316
808.153015,4.92760316
810.379028,4.92760316
812.60498,4.92760316
814.830994,4.92760316
817.057007,4.92760316
819.28302,4.92760316
821.508972,4.92760316
823.734985,4.92760316
825.960999,4.92760316
828.187012,4.92760316
830.413025,4.92760316
832.638977,4.92760316
834.86499,4.92760316
837.091003,4.92760316
839.317017,4.92760316
841.54303,4.92760316
843.768982,4.92760316
845.994995,4.92760316
848.221008,4.92760316
850.447021,4.92760316
852.672974,4.92760316
854.898987,4.92760316
857.125,4.92760316
859.351013,4.92760316
861.577026,4.92760316
863.802979,4.92760316
866.028992,4.92760316
868.255005,4.92760316
870.481018,4.92760316
872.70697,4.92760316
874.932983,4.92760316
877.158997,4.92760316
879.38501,4.92760316
881.611023,4.92760316
883.836975,4.92760316
886.062988,4.92760316
888.288025,4.92760316
890.513977,4.92760316
892.73999,4.92760316
894.966003,4.92760316
897.192017,4.92760316
899.41803,4.92760316
957.5,0.932460238
967.072998,0.932460238
976.64502,0.932460238
986.218018,0.932460238
995.789978,0.932460238
1005.359985,0.932460238
1014.940002,0.932460238
1024.51001,0.932460238
1034.079956,0.932460238
1043.650024,0.932460238
1053.22998,0.932460238
1062.800049,0.932460238
1072.369995,0.932460238
1081.939941,0.932460238
1091.52002,0.932460238
1101.089966,0.932460238
1110.660034,0.932460238
1120.22998,0.932460238
1129.810059,0.932460238
1139.380005,0.932460238
1148.949951,0.932460238
1158.52002,0.932460238
1168.099976,0.932460238
1177.670044,0.932460238
1187.23999,0.932460238
1196.810059,0.932460238
1206.390015,0.932460238
1215.959961,0.932460238
1225.530029,0.932460238
1235.099976,0.932460238
1244.680054,0.932460238
1254.25,0.932460238
1263.819946,0.932460238
1273.390015,0.932460238
1282.969971,0.932460238
1292.540039,0.932460238
1302.109985,0.932460238
1311.680054,0.932460238
1321.26001,0.932460238
1330.829956,0.932460238
1436.119995,0.932460238
1445.699951,0.932460238
1455.27002,0.932460238
1464.839966,0.932460238
1474.410034,0.932460238
1483.98999,0.932460238
1493.560059,0.932460238
1503.130005,0.932460238
1512.699951,0.932460238
1522.280029,0.932460238
1531.849976,0.932460238
1541.420044,0.932460238
1550.98999,0.932460238
1560.569946,0.932460238
1570.140015,0.932460238
1579.709961,0.932460238
1589.280029,0.932460238
1598.859985,0.932460238
1608.430054,0.932460238
1618.0,0.932460238
1627.569946,0.932460238
1637.150024,0.932460238
1646.719971,0.932460238
1656.290039,0.932460238
1665.859985,0.932460238
1675.439941,0.932460238
1685.01001,0.932460238
1694.579956,0.932460238
1704.150024,0.932460238
1713.72998,0.932460238
1723.300049,0.932460238
1732.869995,0.932460238
1742.439941,0.932460238
1752.02002,0.932460238
1761.589966,0.932460238
1771.160034,0.932460238
1981.76001,0.932460238
1991.329956,0.932460238
2000.900024,0.932460238
2010.469971,0.932460238
2020.050049,0.932460238
2029.619995,0.932460238
2039.189941,0.932460238
2048.76001,0.932460238
2058.340088,0.932460238
2067.909912,0.932460238
2077.47998,0.932460238
2087.050049,0.932460238
2096.629883,0.932460238
2106.199951,0.932460238
2115.77002,0.932460238
2125.340088,0.932460238
2134.919922,0.932460238
2144.48999,0.932460238
2154.060059,0.932460238
2163.629883,0.932460238
2173.209961,0.932460238
2182.780029,0.932460238
2192.350098,0.932460238
2201.919922,0.932460238
2211.5,0.932460238
2221.070068,0.932460238
2230.639893,0.932460238
2240.209961,0.932460238
2249.790039,0.932460238
2259.360107,0.932460238
2268.929932,0.932460238
2278.5,0.932460238
2288.080078,0.932460238
2297.649902,0.932460238
2307.219971,0.932460238
2316.790039,0.932460238
