Wavelength,vp47
451.996002,16.46807512
454.221985,16.46807512
456.447998,16.46807512
458.674011,16.46807512
460.899994,16.46807512
463.126007,16.46807512
465.35199,16.46807512
467.578003,16.46807512
469.803986,16.46807512
472.029999,16.46807512
474.256012,16.46807512
476.481995,16.46807512
478.708008,16.46807512
480.93399,16.46807512
483.160004,16.46807512
485.385986,16.46807512
487.612,16.46807512
489.838013,16.46807512
492.063995,16.46807512
494.290009,16.46807512
496.515991,16.46807512
498.742004,16.46807512
500.967987,16.46807512
503.194,16.46807512
505.420013,16.46807512
507.645996,16.46807512
509.872009,16.46807512
512.098022,16.46807512
514.323975,16.46807512
516.549988,16.46807512
518.776001,16.46807512
521.002014,16.46807512
523.228027,16.46807512
525.453979,16.46807512
527.679993,16.46807512
529.906006,16.46807512
532.132019,16.46807512
534.357971,16.46807512
536.583984,16.46807512
538.809998,16.46807512
541.036011,16.46807512
543.260986,16.46807512
545.487,16.46807512
547.713013,16.46807512
549.939026,16.46807512
552.164978,16.46807512
554.390991,16.46807512
556.617004,16.46807512
558.843018,16.46807512
561.06897,16.46807512
563.294983,16.46807512
565.520996,16.46807512
567.747009,16.46807512
569.973022,16.46807512
572.198975,16.46807512
574.424988,16.46807512
576.651001,16.46807512
578.877014,16.46807512
581.103027,16.46807512
583.328979,16.46807512
585.554993,16.46807512
587.781006,16.46807512
590.007019,16.46807512
592.232971,16.46807512
594.458984,16.46807512
596.684998,16.46807512
598.911011,16.46807512
601.137024,16.46807512
603.362976,16.46807512
605.588989,16.46807512
607.815002,16.46807512
610.041016,16.46807512
612.267029,16.46807512
614.492981,16.46807512
616.718994,16.46807512
618.945007,16.46807512
621.171021,16.46807512
623.396973,16.46807512
625.622986,16.46807512
627.848999,16.46807512
630.075012,16.46807512
632.301025,16.46807512
634.526978,16.46807512
636.752991,16.46807512
638.979004,16.46807512
641.205017,16.46807512
643.43103,16.46807512
645.656982,16.46807512
647.882996,16.46807512
650.109009,16.46807512
652.335022,16.46807512
654.560974,16.46807512
656.786987,16.46807512
659.013,16.46807512
661.239014,16.46807512
663.465027,16.46807512
665.690002,16.46807512
667.916016,16.46807512
670.142029,16.46807512
672.367981,16.46807512
674.593994,16.46807512
676.820007,16.46807512
679.046021,16.46807512
681.271973,16.46807512
683.497986,16.46807512
685.723999,16.46807512
687.950012,16.46807512
690.176025,16.46807512
692.401978,16.46807512
694.627991,16.46807512
696.854004,16.46807512
699.080017,16.46807512
701.30603,16.46807512
703.531982,16.46807512
705.757996,16.46807512
707.984009,16.46807512
710.210022,16.46807512
712.435974,16.46807512
714.661987,16.46807512
716.888,16.46807512
719.114014,16.46807512
721.340027,16.46807512
723.565979,16.46807512
725.791992,16.46807512
728.018005,16.46807512
730.244019,16.46807512
732.469971,16.46807512
734.695984,16.46807512
736.921997,16.46807512
739.14801,16.46807512
741.374023,16.46807512
743.599976,16.46807512
745.825989,16.46807512
748.052002,16.46807512
750.278015,16.46807512
752.504028,16.46807512
754.72998,16.46807512
756.955994,16.46807512
759.182007,16.46807512
761.40802,16.46807512
763.633972,16.46807512
765.859985,16.46807512
768.085999,16.46807512
770.312012,16.46807512
772.538025,16.46807512
774.763977,16.46807512
776.989014,16.46807512
779.216003,16.46807512
781.440979,16.46807512
783.666992,16.46807512
785.893005,16.46807512
788.119019,16.46807512
790.344971,16.46807512
792.570984,16.46807512
794.796997,16.46807512
797.02301,16.46807512
799.249023,16.46807512
801.474976,16.46807512
803.700989,16.46807512
805.927002,16.46807512
808.153015,16.46807512
810.379028,16.46807512
812.60498,16.46807512
814.830994,16.46807512
817.057007,16.46807512
819.28302,16.46807512
821.508972,16.46807512
823.734985,16.46807512
825.960999,16.46807512
828.187012,16.46807512
830.413025,16.46807512
832.638977,16.46807512
834.86499,16.46807512
837.091003,16.46807512
839.317017,16.46807512
841.54303,16.46807512
843.768982,16.46807512
845.994995,16.46807512
848.221008,16.46807512
850.447021,16.46807512
852.672974,16.46807512
854.898987,16.46807512
857.125,16.46807512
859.351013,16.46807512
861.577026,16.46807512
863.802979,16.46807512
866.028992,16.46807512
868.255005,16.46807512
870.481018,16.46807512
872.70697,16.46807512
874.932983,16.46807512
877.158997,16.46807512
879.38501,16.46807512
881.611023,16.46807512
883.836975,16.46807512
886.062988,16.46807512
888.288025,16.46807512
890.513977,16.46807512
892.73999,16.46807512
894.966003,16.46807512
897.192017,16.46807512
899.41803,16.46807512
957.5,20.14884573
967.072998,20.14884573
976.64502,20.14884573
986.218018,20.14884573
995.789978,20.14884573
1005.359985,20.14884573
1014.940002,20.14884573
1024.51001,20.14884573
1034.079956,20.14884573
1043.650024,20.14884573
1053.22998,20.14884573
1062.800049,20.14884573
1072.369995,20.14884573
1081.939941,20.14884573
1091.52002,20.14884573
1101.089966,20.14884573
1110.660034,20.14884573
1120.22998,20.14884573
1129.810059,20.14884573
1139.380005,20.14884573
1148.949951,20.14884573
1158.52002,20.14884573
1168.099976,20.14884573
1177.670044,20.14884573
1187.23999,20.14884573
1196.810059,20.14884573
1206.390015,20.14884573
1215.959961,20.14884573
1225.530029,20.14884573
1235.099976,20.14884573
1244.680054,20.14884573
1254.25,20.14884573
1263.819946,20.14884573
1273.390015,20.14884573
1282.969971,20.14884573
1292.540039,20.14884573
1302.109985,20.14884573
1311.680054,20.14884573
1321.26001,20.14884573
1330.829956,20.14884573
1436.119995,20.14884573
1445.699951,20.14884573
1455.27002,20.14884573
1464.839966,20.14884573
1474.410034,20.14884573
1483.98999,20.14884573
1493.560059,20.14884573
1503.130005,20.14884573
1512.699951,20.14884573
1522.280029,20.14884573
1531.849976,20.14884573
1541.420044,20.14884573
1550.98999,20.14884573
1560.569946,20.14884573
1570.140015,20.14884573
1579.709961,20.14884573
1589.280029,20.14884573
1598.859985,20.14884573
1608.430054,20.14884573
1618.0,20.14884573
1627.569946,20.14884573
1637.150024,20.14884573
1646.719971,20.14884573
1656.290039,20.14884573
1665.859985,20.14884573
1675.439941,20.14884573
1685.01001,20.14884573
1694.579956,20.14884573
1704.150024,20.14884573
1713.72998,20.14884573
1723.300049,20.14884573
1732.869995,20.14884573
1742.439941,20.14884573
1752.02002,20.14884573
1761.589966,20.14884573
1771.160034,20.14884573
1981.76001,20.14884573
1991.329956,20.14884573
2000.900024,20.14884573
2010.469971,20.14884573
2020.050049,20.14884573
2029.619995,20.14884573
2039.189941,20.14884573
2048.76001,20.14884573
2058.340088,20.14884573
2067.909912,20.14884573
2077.47998,20.14884573
2087.050049,20.14884573
2096.629883,20.14884573
2106.199951,20.14884573
2115.77002,20.14884573
2125.340088,20.14884573
2134.919922,20.14884573
2144.48999,20.14884573
2154.060059,20.14884573
2163.629883,20.14884573
2173.209961,20.14884573
2182.780029,20.14884573
2192.350098,20.14884573
2201.919922,20.14884573
2211.5,20.14884573
2221.070068,20.14884573
2230.639893,20.14884573
2240.209961,20.14884573
2249.790039,20.14884573
2259.360107,20.14884573
2268.929932,20.14884573
2278.5,20.14884573
2288.080078,20.14884573
2297.649902,20.14884573
2307.219971,20.14884573
2316.790039,20.14884573
